## Resonance frequencies (Hz)
707.05701E3
787.45504E3
904.15879E3
1181.13410E3
1255.73341E3
1327.66703E3
1385.56100E3
1415.00206E3
1536.41432E3
1569.06299E3
1602.61307E3
1614.33627E3
1742.46249E3
1794.84383E3
1823.44856E3
1852.20547E3
1864.72185E3
1929.25560E3
1990.12158E3
1998.80913E3
2061.15152E3
2092.56333E3
2202.34865E3
2227.18760E3
2254.82280E3
2258.34475E3
2274.06675E3
2279.84910E3
2290.46455E3
2313.33206E3
2345.65211E3
2375.01209E3
2396.69760E3
2463.91247E3
2494.02292E3
2525.27673E3
2536.39207E3
2561.25266E3
2595.72169E3
2620.21219E3
2636.01421E3
2670.60620E3
2672.94173E3
2724.56759E3
2743.78295E3
2771.40935E3
2775.95387E3
2792.48616E3
2830.20038E3
2845.52325E3
2847.94466E3
2884.60200E3
2941.11684E3
2948.71523E3
2966.24333E3
3032.65191E3
3039.15239E3
3060.64940E3
3071.73240E3
3100.04524E3
3166.00527E3
3176.97220E3
3192.59121E3
3215.74474E3
3243.39183E3
3262.66225E3
3270.29510E3
3281.96447E3
3298.63587E3
3299.56456E3
3312.80543E3
3328.96538E3
3385.14144E3
3389.80300E3
3503.54012E3
3534.72201E3
3550.76115E3
3559.93072E3
3586.37470E3
3604.21360E3
3627.93574E3
3642.55588E3
3649.80062E3
3670.00506E3
3673.38863E3
3693.98849E3